BEGIN IONS
TITLE=id=PRD000715;PRIDE_Exp_Complete_Ac_24805.xml;spectrum=1
PEPMASS=1163.8678743333332
CHARGE=3+
1999.812	8.220
1706.657	20.703
694.478	14.028
663.650	7.851
903.889	26.111
1474.560	10.569
1019.366	15.294
920.813	6.160
1204.413	52.311
1410.403	12.249
1340.385	16.003
968.405	101.622
1606.703	5.477
1459.705	6.150
1376.368	61.133
1152.924	85.833
1841.067	10.283
1835.254	13.586
1331.870	32.425
781.503	31.323
1149.730	7792.376
1594.156	207.822
984.909	50.671
1024.324	50.015
1249.646	6.993
605.429	27.365
836.581	13.610
1096.986	3.093
547.914	3.442
1860.793	13.867
650.201	5.143
620.421	7.084
1107.479	36.920
1983.323	13.265
1707.758	13.970
969.782	13.080
385.152	9.881
614.468	9.777
1619.580	20.353
1140.993	432.770
1313.443	10.531
677.581	7.842
776.123	8.853
992.068	26.131
996.572	33.044
910.566	56.626
1176.450	71.603
524.448	4.804
849.267	6.081
973.759	18.374
1554.801	25.103
808.563	36.811
638.306	6.846
825.672	6.775
929.576	6.827
600.461	5.469
1075.141	9.908
1441.936	3.798
1337.622	25.265
412.418	5.134
1596.524	16.972
589.658	12.928
1101.971	15.080
1110.198	96.907
460.920	10.407
901.006	276.579
936.484	6.497
1149.000	5021.111
1332.696	6.498
597.573	290.594
1127.559	10.769
1237.851	63.629
1964.913	13.686
1122.425	7.468
1422.464	19.788
1344.521	6.449
1173.326	10.561
1081.645	136.824
1123.993	34.665
1480.301	150.480
803.688	21.770
1037.678	24.974
1050.732	408.647
1802.448	53.031
1285.668	104.692
1184.523	52.142
1175.557	175.698
1681.581	9.328
1530.016	35.556
1315.799	43.503
1682.921	16.897
695.383	26.026
431.293	13.167
969.108	7.382
377.964	5.112
1800.873	61.176
1764.904	5.145
932.417	12.228
532.345	26.958
675.490	8.255
1189.130	16.366
1258.578	32.093
450.429	4.151
1277.075	52.281
925.276	15.242
1354.859	6.497
1300.738	18.481
1290.704	162.701
1305.876	17.535
1624.823	8.867
1069.479	7.819
938.612	70.083
1401.490	5.484
1435.858	5.792
1104.553	424.328
1212.906	64.928
674.399	14.562
1092.786	19.939
462.311	10.263
1093.700	7.842
867.498	10.888
1177.108	42.431
1454.289	19.750
1364.830	227.805
1343.064	65.014
835.649	9.503
804.720	13.987
1102.784	35.019
1047.426	22.143
1217.616	25.791
1137.261	63.332
1396.597	19.050
678.194	8.528
934.557	21.794
1291.367	65.129
1146.640	15.010
473.367	13.553
1598.495	10.129
497.946	6.497
1264.541	13.167
1023.440	45.842
406.029	8.817
1375.219	35.255
1115.691	191.552
595.435	4.463
939.527	19.715
1424.713	5.758
1307.207	26.447
795.029	19.095
1049.797	3.108
1372.570	15.084
1232.015	24.520
646.763	138.020
1878.155	3.114
1154.562	30.920
382.143	9.932
1529.098	17.402
1487.798	32.149
1000.249	39.949
1338.865	10.506
786.218	21.235
1390.556	24.632
622.115	2.222
641.045	7.153
1486.784	127.155
485.233	11.345
1540.706	2.435
1152.021	139.457
892.649	54.369
698.242	11.082
1472.696	6.158
751.589	16.901
1684.683	17.666
1293.661	403.499
529.983	12.538
964.398	3.791
1253.102	22.154
1400.223	325.354
1804.545	34.171
733.367	6.497
933.507	127.008
1640.481	4.804
1294.499	55.123
960.261	50.542
1656.056	3.770
1262.182	216.855
1455.624	4.462
1833.447	30.110
1691.820	82.722
1360.288	25.215
1278.916	20.808
1462.057	6.523
950.814	13.215
1076.428	33.733
1387.609	34.838
1503.420	10.144
1259.478	15.520
1229.713	59.828
973.056	5.378
1065.452	32.906
1329.836	8.197
1716.844	27.591
1326.787	27.613
986.350	5.490
794.317	28.917
965.778	77.235
1440.689	242.620
785.478	22.102
847.243	7.852
1078.539	103.211
1292.567	533.907
861.503	8.197
977.234	112.161
1699.647	5.819
705.190	5.099
1502.779	9.527
1263.061	67.729
912.027	49.516
684.437	19.216
1608.027	15.649
1558.906	15.423
1420.025	43.325
1528.413	46.847
1544.194	39.521
1150.667	240.955
1144.855	1075.151
1915.964	8.778
1551.801	7.443
1434.332	13.190
1131.676	1847.916
1380.837	3.796
1241.301	16.971
1141.824	24.357
365.318	3.452
1062.562	14.305
1136.238	106.603
759.046	6.476
1747.384	10.458
868.861	16.911
1040.399	5.820
1397.350	5.417
1073.202	21.369
1605.664	12.831
1953.743	14.959
1361.926	4.135
396.184	10.572
1099.629	835.615
768.636	3.112
1801.696	29.428
639.297	22.277
1032.758	61.575
1198.509	29.401
1398.182	48.073
1772.902	7.511
1473.472	4.171
383.110	7.174
1042.615	30.490
1608.862	14.648
1048.520	33.782
552.086	15.013
958.475	23.371
1436.550	3.471
764.354	83.016
647.642	29.609
1423.409	40.717
1336.147	5.819
1817.229	5.143
873.237	5.144
1782.758	19.539
1369.772	9.197
1750.945	6.835
852.019	103.343
1515.597	27.055
994.239	18.844
1545.350	28.667
1068.630	5.469
761.025	18.353
902.050	20.298
1129.006	29.825
911.302	28.977
1114.775	1093.187
609.455	5.815
1585.371	20.573
882.175	11.216
467.369	12.884
1087.746	32.118
1206.609	8.189
1484.690	24.895
886.267	20.464
402.979	7.819
1984.280	23.525
1155.333	27.336
948.843	13.618
1604.920	14.519
889.508	27.040
587.392	5.476
1227.029	10.104
1029.458	18.228
1421.545	9.129
1003.143	85.122
1082.911	96.696
1428.988	19.725
1064.413	29.287
1085.158	95.687
1676.312	7.126
621.427	17.784
991.436	18.944
1505.128	5.072
631.499	16.724
1353.598	3.136
870.127	22.612
682.934	10.233
667.619	17.233
1686.705	53.692
1659.736	10.557
840.181	6.469
999.407	26.739
1692.779	9.200
1602.624	13.187
700.545	4.796
870.768	17.339
1584.647	40.264
845.854	76.247
1038.359	9.116
1113.349	14.586
809.309	4.778
729.431	22.298
954.111	12.574
1222.664	3.442
1033.801	43.240
1245.150	38.035
1752.923	2.797
544.524	25.458
1467.402	14.737
1125.415	140.393
1132.502	123.307
1632.629	11.471
1284.827	294.377
979.621	28.340
1788.047	17.505
1604.003	8.826
1471.269	27.973
644.413	3.780
940.680	4.506
1454.902	10.961
1143.556	7.760
525.448	6.871
1949.499	6.488
813.189	7.989
1041.573	42.229
971.559	11.696
1945.970	5.141
850.644	5.479
1119.622	22.325
502.034	2.101
1009.037	57.069
1725.501	24.854
1443.545	14.760
1521.664	12.840
484.497	19.400
1172.685	28.286
1930.021	7.521
1281.723	11.811
1595.452	26.965
1460.615	31.957
1588.432	16.995
1100.377	2182.851
854.658	10.333
1269.809	26.324
1488.792	12.167
844.105	27.560
1508.549	46.956
1006.496	3.797
1051.609	90.334
1575.432	24.036
1097.618	12.972
1242.205	16.902
1230.500	12.491
747.469	12.605
1538.575	40.369
619.242	5.821
580.988	11.630
1628.770	59.162
1625.826	11.299
827.558	8.430
1109.526	112.099
648.450	4.800
1126.070	57.417
1026.199	331.826
1756.923	6.541
1507.596	23.659
687.602	14.295
1140.086	1449.122
503.514	15.571
902.880	23.783
989.789	10.876
879.224	30.169
1055.426	40.994
1022.728	156.901
869.518	20.462
1821.555	8.430
1482.402	10.540
857.438	15.311
1409.369	33.364
1624.129	14.404
1147.607	11.884
987.597	3.136
1257.670	68.949
1018.072	14.286
908.877	33.497
812.444	91.986
774.797	23.922
1021.437	406.070
1311.705	15.844
777.596	16.582
1466.138	24.885
511.335	24.046
974.670	8.467
1667.355	17.688
1090.728	1044.573
479.538	16.546
944.418	3.120
826.328	7.514
1757.733	7.757
962.794	20.016
1333.738	17.359
1412.331	28.754
1346.133	4.453
927.387	28.278
1106.388	116.906
842.465	14.516
500.945	20.720
617.536	12.907
1668.642	22.551
596.456	18.833
527.229	5.480
633.436	10.228
1393.474	21.922
1673.280	186.091
1381.489	14.215
763.326	163.094
686.041	19.540
497.055	27.229
1469.001	9.483
1203.436	41.442
1981.380	11.816
1235.294	386.356
1560.114	16.820
1187.898	8.081
1031.122	11.220
1672.565	173.647
630.375	28.983
548.940	17.303
400.272	3.455
1135.293	206.207
1363.976	173.993
1015.885	17.394
1805.538	16.564
1627.071	75.898
1009.668	13.128
1876.764	12.244
734.992	13.267
978.180	40.193
1985.931	35.483
456.390	7.076
533.350	10.251
914.372	17.028
1850.526	4.809
1303.813	17.620
1359.253	12.248
1044.973	4.463
894.099	23.589
740.309	4.126
1077.679	64.138
469.129	4.796
891.877	105.431
995.621	4.123
1587.513	15.905
657.454	17.295
1385.348	5.817
1014.615	12.215
1079.345	5.384
802.298	32.221
1091.694	423.078
1854.052	4.159
1392.713	53.439
418.181	4.813
967.627	229.574
1934.060	36.204
360.266	19.484
843.277	55.729
807.564	213.461
1096.376	142.424
1274.689	19.050
413.103	3.793
1875.893	13.081
1013.948	8.813
1865.997	6.827
1195.574	639.971
735.677	5.506
598.309	35.056
1273.529	49.242
1196.776	93.011
1563.080	42.033
1539.530	16.656
1130.668	60.611
603.467	7.189
998.688	11.228
1066.107	9.421
1512.415	22.319
1469.625	10.464
1197.557	26.995
1399.388	73.477
796.135	4.929
1378.313	6.733
713.479	6.156
1705.829	4.457
1636.926	117.812
1727.979	18.309
743.496	129.615
427.411	7.851
1704.642	3.535
716.393	6.157
1543.033	14.269
1952.522	3.459
1439.641	139.150
1449.699	14.950
1689.672	200.073
1187.268	57.335
1537.335	53.009
1226.401	45.291
1179.616	3.763
1481.591	5.759
1628.135	144.465
536.318	3.791
760.262	4.474
411.237	12.588
828.606	19.798
1547.667	16.257
1302.191	60.810
1254.290	13.156
1522.835	33.575
1479.146	13.843
931.790	12.230
1582.959	11.809
1564.009	15.654
765.192	16.916
1201.494	50.015
1067.885	10.080
744.621	8.419
1769.928	9.116
820.598	15.566
1324.283	39.222
773.463	4.457
924.573	34.869
1027.034	40.985
1145.646	317.438
983.331	191.810
1637.651	35.591
1593.357	327.645
1202.496	119.398
522.016	17.667
599.352	57.541
1485.700	142.476
1213.714	29.382
526.436	7.422
1806.139	3.089
446.354	7.501
445.292	13.742
601.470	12.949
852.868	65.008
1295.123	56.699
831.671	4.812
799.238	8.865
537.216	3.442
1663.637	51.124
1095.358	134.961
1059.221	7.078
1591.845	10.192
926.238	26.908
1200.359	39.174
1629.872	8.515
1446.081	24.011
1186.457	71.498
1556.673	3.394
1365.742	17.490
1736.382	5.464
693.496	51.268
1358.330	34.174
1126.876	38.190
394.078	10.655
988.495	23.673
1086.259	119.299
1124.738	19.834
1343.785	20.214
1600.852	4.523
1371.088	107.947
1228.249	11.467
993.242	5.145
845.153	84.172
1030.476	16.655
928.441	17.914
1527.698	149.874
942.973	41.395
1642.810	20.407
673.210	11.502
1442.646	12.571
923.473	47.542
1702.486	4.467
568.411	10.222
1178.777	74.143
1615.724	31.730
1012.180	33.855
1509.829	4.457
1404.538	12.572
904.600	4.374
1457.159	13.266
1498.939	11.249
1193.518	5821.871
380.440	11.517
1444.614	77.715
453.009	13.945
1586.806	5.495
1234.157	52.074
907.196	24.571
1618.549	6.068
717.509	6.135
513.442	10.504
981.514	28.369
1061.803	14.234
862.110	19.126
916.436	16.307
1614.810	68.681
1470.411	35.280
1623.450	39.158
679.293	10.460
1526.636	235.705
1243.771	14.617
1973.853	28.300
941.458	12.604
1123.051	23.865
1236.217	115.686
561.476	7.510
1089.271	117.299
1806.775	17.692
1046.071	23.836
1111.546	53.060
1490.340	24.675
1731.588	6.457
1314.912	50.866
676.669	17.481
1491.746	4.471
1060.527	34.576
692.345	130.313
1210.466	3.789
1690.814	185.946
1326.090	13.557
1379.851	28.398
1685.463	35.546
571.422	11.807
1532.919	4.473
665.357	30.639
724.439	4.760
348.244	14.563
1067.139	77.762
1084.060	77.795
698.993	2.765
1225.543	17.778
1675.647	5.144
1391.323	33.562
1703.758	30.353
582.447	14.693
1803.263	5.708
1356.414	41.113
1964.001	16.908
1677.101	14.299
1035.100	8.141
1368.569	8.807
359.176	18.319
710.062	12.034
890.458	9.160
952.135	83.295
883.932	28.144
1342.247	218.044
982.502	302.631
1005.603	3.491
1819.137	5.812
876.606	8.536
1386.479	37.215
1934.760	9.518
1644.230	15.081
1351.531	9.920
1553.456	23.305
1101.131	505.673
1117.983	12.525
1070.785	15.909
1087.145	39.071
1017.472	61.881
1255.274	15.749
1350.609	29.820
1105.523	270.845
1578.740	10.915
1153.731	23.180
1282.817	8.851
478.679	33.506
1242.910	53.033
1170.346	10.274
452.237	9.945
1177.745	23.964
1849.337	21.069
1302.826	16.634
863.324	12.589
1001.075	72.280
834.223	28.168
545.685	14.233
922.415	163.653
1276.060	103.401
1268.044	12.825
1194.509	2933.514
1207.645	13.677
1494.549	6.476
1490.992	22.081
END IONS
BEGIN IONS
TITLE=id=PRD000715;PRIDE_Exp_Complete_Ac_24805.xml;spectrum=2
PEPMASS=1217.5823635
CHARGE=2+
765.512	15.976
1198.262	18.534
1246.784	10.214
1576.669	8.585
1356.682	174.597
1492.999	4.422
1205.945	8.947
END IONS
BEGIN IONS
TITLE=id=PRD000715;PRIDE_Exp_Complete_Ac_24805.xml;spectrum=3
PEPMASS=898.7290803333334
CHARGE=3+
1204.145	30.021
860.712	186.012
636.326	24.959
834.768	7.620
1246.574	15.192
888.659	26.468
877.245	17.122
545.990	8.636
869.014	45.857
613.426	24.467
569.330	10.693
975.753	5.659
1226.207	8.455
855.937	30.492
1004.795	4.109
1406.715	6.529
1091.982	44.005
1170.677	22.533
259.291	6.834
579.311	4.082
501.251	5.373
1082.812	2.798
864.164	44.519
883.632	19.662
1765.159	3.181
666.793	10.368
1180.795	10.035
995.660	5.662
1488.888	4.723
1247.667	4.608
1070.307	6.007
1212.782	11.338
1257.038	7.784
640.388	9.141
1137.762	13.366
257.299	3.745
1031.016	61.499
390.324	19.209
874.178	75.608
1459.572	15.524
1135.454	23.146
460.333	4.087
519.391	8.575
568.504	3.443
880.195	11.319
1147.734	2.496
1457.468	12.788
1323.795	5.356
1192.507	31.986
725.640	2.462
885.601	6.012
941.047	9.391
743.503	12.086
784.661	11.398
939.584	21.369
325.293	10.048
703.180	13.372
823.358	11.585
509.225	10.502
927.826	11.982
1206.596	4.408
813.604	6.012
1760.437	8.904
758.523	30.317
842.860	14.973
454.482	6.652
1211.407	51.194
362.408	5.298
1575.696	7.507
775.809	35.474
1290.545	11.821
753.678	144.263
881.050	28.999
1307.001	4.929
835.506	9.561
910.120	11.003
1116.194	8.121
586.643	26.602
1219.811	3.761
1236.814	8.257
738.681	33.207
537.411	71.568
598.416	4.732
597.340	19.143
981.919	11.208
722.447	6.521
1080.408	13.795
742.803	3.439
1506.513	15.763
409.275	11.663
1189.499	88.192
1104.162	26.926
803.477	34.094
1343.287	10.038
1217.608	12.611
832.587	9.110
695.885	9.535
946.740	26.620
1441.484	3.781
889.508	42.297
559.325	16.141
1202.329	33.507
1447.571	6.943
735.582	4.739
723.254	5.692
830.802	51.657
1623.474	8.254
1121.592	12.495
754.465	28.156
801.530	25.150
785.727	5.045
1188.596	65.908
853.419	4.085
927.203	6.849
712.419	15.517
886.787	35.612
1496.571	6.856
734.455	4.266
806.413	5.892
848.760	31.867
931.656	11.013
1021.644	11.145
1073.327	29.996
767.462	23.194
645.445	26.888
1161.374	22.304
706.466	10.063
533.616	5.365
1737.751	4.411
866.974	324.460
989.234	9.745
625.533	4.284
275.324	26.750
1351.168	5.016
911.008	90.316
1113.421	17.402
951.614	22.198
1444.855	2.159
959.852	17.311
1346.728	12.929
778.346	39.992
630.214	6.829
1645.947	15.715
1099.422	18.430
1101.849	16.613
763.179	21.534
862.501	13.890
1507.638	11.783
872.904	11.589
863.376	81.189
1548.075	12.857
783.428	5.372
422.106	5.687
887.597	5.692
1284.679	13.691
1263.509	5.693
1071.379	27.549
876.203	6.569
511.450	6.200
1272.482	5.046
1094.079	8.230
1223.443	9.071
655.995	4.696
779.806	26.350
849.600	30.913
966.296	17.098
1193.366	3.769
980.777	2.478
924.076	24.264
1410.716	6.897
1143.986	13.089
861.699	4.058
1530.202	4.909
1201.584	18.685
1025.967	21.592
854.299	33.214
678.250	21.849
1074.071	18.257
686.698	14.555
1270.730	10.504
677.488	3.181
623.343	14.861
1557.766	4.406
1111.334	30.895
728.397	9.445
423.147	4.404
314.479	16.814
1155.626	26.892
938.386	20.308
787.480	17.350
1152.928	28.697
912.078	52.797
1101.065	27.012
342.432	3.120
859.979	175.775
514.299	6.509
1079.547	67.085
477.239	5.750
901.809	21.234
698.232	5.046
1239.512	8.869
768.797	13.237
760.464	24.151
879.302	18.823
949.510	12.817
816.237	6.898
667.524	4.725
1088.820	16.780
1362.908	6.988
943.203	4.400
618.122	17.024
1293.471	4.081
1666.524	21.965
1139.954	12.301
802.327	19.693
545.188	6.975
937.307	4.082
1261.170	5.659
280.088	4.053
1283.984	9.469
1173.190	6.652
1118.575	12.810
872.267	23.224
1066.551	16.730
776.513	160.148
820.123	27.067
1213.476	11.145
857.628	51.878
611.173	17.845
952.649	18.396
1243.698	7.162
1344.652	3.729
413.248	16.630
480.232	3.138
1746.702	3.437
530.548	6.529
978.472	16.461
1461.896	36.128
540.818	4.744
627.713	9.072
1158.413	8.915
705.130	123.321
1857.210	5.677
915.304	13.571
665.516	4.728
840.647	20.369
890.306	25.409
1716.898	9.405
891.390	12.747
1463.487	8.826
977.847	9.834
1117.735	13.143
1012.651	13.599
827.060	27.154
367.362	4.084
1229.295	13.259
573.385	3.104
960.571	67.741
1014.426	6.346
1291.498	7.912
751.047	32.752
493.353	6.656
847.288	97.939
1578.292	6.006
303.168	2.802
1042.489	13.456
822.325	32.135
850.364	87.201
875.326	112.042
1251.808	16.012
1756.709	5.242
1245.496	4.009
950.861	35.675
1275.480	40.005
1019.542	11.660
1048.552	16.502
1030.294	62.504
373.170	6.337
844.447	32.114
484.451	14.382
1434.490	8.547
773.555	13.997
664.319	3.139
1413.659	8.592
1166.553	23.196
973.898	5.688
1462.881	8.434
762.224	6.007
396.485	45.434
731.533	7.039
617.175	20.460
881.771	24.195
907.032	13.270
804.374	4.264
1018.691	10.401
794.045	22.239
796.344	5.691
736.972	12.206
1110.176	9.541
833.834	15.387
1022.737	19.001
882.724	17.851
866.263	1605.929
777.528	39.887
814.971	12.608
1162.552	66.926
746.322	3.445
867.720	11.418
972.193	27.439
357.307	4.082
411.342	11.402
749.370	6.520
1154.153	15.292
END IONS
BEGIN IONS
TITLE=id=PRD000715;PRIDE_Exp_Complete_Ac_24805.xml;spectrum=4
PEPMASS=60000
CHARGE=2+
1236.700	27.802
1595.585	73.300
1127.560	155.521
1084.527	26.855
924.567	17.088
713.569	8.574
1058.360	13.059
1414.543	2.569
1586.430	20.049
894.507	12.225
669.339	10.352
1721.245	69.788
1987.967	14.444
1963.202	19.238
1690.490	210.010
640.973	5.717
1836.496	7.835
1039.448	1106.771
1350.456	20.022
1356.644	2.367
975.429	24.816
659.283	9.437
1773.411	14.407
870.385	8.807
1253.586	59.871
1960.453	10.611
1167.767	110.159
1439.206	14.199
1177.598	1.485
1415.654	1.933
804.377	21.369
772.538	12.451
1104.243	3.294
1935.567	19.985
1029.527	3.224
1721.883	9.503
1067.478	22.015
869.287	4.880
726.266	2.357
1112.885	14.856
1214.603	2.573
1173.664	14.144
1650.786	11.584
1201.784	32.533
949.993	7.924
1808.161	34.315
1876.583	6.904
1782.490	45.204
1360.391	8.946
411.234	10.773
1529.694	4.526
1483.673	220.534
912.104	17.178
598.204	3.784
1507.899	10.349
1762.719	158.600
657.427	10.106
1411.659	815.247
1745.860	3.441
1992.099	17.378
1691.492	109.343
1446.098	11.440
954.488	4.734
1358.729	18.045
1352.113	22.455
1980.938	12.503
1755.970	25.438
1261.948	11.907
1464.931	44.160
1021.586	26.339
1189.674	338.255
1775.722	3.874
1322.410	5.165
1726.158	11.094
1307.521	19.704
1377.606	5.539
957.327	36.067
948.474	26.719
964.568	23.309
876.409	450.578
1372.116	11.113
1386.585	63.040
853.175	9.319
1945.172	11.153
1361.355	14.237
1032.751	9.937
1990.732	8.816
1952.784	1.488
1397.363	12.700
1373.443	3.442
672.681	5.398
807.554	13.545
593.591	5.168
734.371	14.628
1729.666	9.053
1251.408	70.082
495.389	11.217
1320.668	36.987
932.754	2.778
809.343	20.958
1942.651	4.269
911.343	3.010
1099.578	12.490
1988.852	41.157
1826.832	13.593
1746.484	3.670
627.418	21.918
1284.126	631.559
1155.381	97.023
1239.264	6.268
1163.261	25.001
1791.779	11.712
839.165	16.591
602.451	29.260
1265.836	351.337
976.940	13.050
1463.405	4.920
1527.416	297.463
673.539	14.376
588.457	47.272
1071.766	7.538
1629.701	20.446
1594.073	1.963
1064.445	3.658
827.359	3.658
1949.030	20.333
1023.507	47.265
834.456	9.260
1922.600	152.562
1031.734	48.547
1172.349	75.639
1438.344	196.730
1541.737	35.657
1391.570	7.213
926.757	8.242
436.399	5.396
756.845	2.358
646.391	2.789
727.403	14.631
628.301	2.788
1983.715	6.412
1460.823	1.962
630.295	3.001
1923.676	52.544
1687.498	12.829
1482.012	25.871
1359.545	27.451
1017.359	46.135
1370.395	18.170
835.526	3.440
1119.282	134.902
1068.102	11.893
1216.563	55.298
1235.830	12.230
1245.202	7.488
1331.384	9.638
1294.311	2.150
1654.400	153.142
1446.875	2.788
1523.401	12.118
1684.090	5.659
1300.845	2.358
1380.046	4.089
1266.699	48.664
1306.283	2.139
572.570	1.745
858.641	53.411
654.292	5.522
1288.686	12.643
1170.699	10.538
910.471	8.214
1749.810	6.310
1533.711	3.250
1426.443	9.885
736.067	16.688
481.460	6.174
1093.693	1.705
401.171	13.790
1986.284	10.758
1800.607	144.486
1202.744	11.092
1528.022	46.066
819.158	6.285
1717.052	11.970
484.370	15.680
842.419	1.924
1077.850	14.013
1787.730	15.517
1138.520	27.103
1637.433	6.012
1233.382	5.391
1475.514	9.385
895.588	37.556
784.471	6.903
1555.361	9.446
1824.854	47.772
1061.389	13.606
1100.867	44.898
1579.202	3.790
1456.388	174.300
952.127	8.642
1888.421	26.398
733.387	6.746
1744.989	20.104
1003.964	17.376
971.433	11.617
750.198	3.725
855.435	3.008
786.560	27.731
601.545	4.004
1218.409	13.093
1321.610	11.937
1325.428	10.689
1783.480	38.042
748.442	414.224
1292.923	11.770
1794.944	4.744
619.319	4.133
1210.614	12.287
959.301	6.628
1734.770	31.742
1384.689	33.124
1733.633	32.406
823.298	2.134
1648.751	15.714
1396.456	4.013
1312.372	7.490
1493.448	3.262
1136.743	6.578
1217.447	3.971
407.876	1.919
1076.921	5.416
1178.252	10.436
1395.360	5.843
1285.024	16.171
1974.886	13.257
965.391	8.166
1558.628	4.439
1248.782	16.099
1092.857	3.429
549.590	11.225
583.552	3.439
1140.406	4.240
1001.393	11.935
1057.567	53.030
1126.275	171.435
611.319	7.773
919.043	4.662
1465.583	29.252
1256.879	6.773
486.505	1.707
1819.650	131.806
1462.711	3.250
1168.635	10.204
1546.384	6.865
1969.005	1.707
1592.513	58.141
1310.588	10.075
987.468	27.689
1079.861	27.453
1825.931	19.859
982.515	13.207
1189.031	467.334
1672.544	274.658
671.296	8.698
1228.807	4.743
1479.848	6.529
1718.541	4.010
1148.422	7.560
1978.594	66.865
768.371	26.910
496.147	6.699
1532.317	12.547
498.673	8.267
1343.057	13.518
1255.681	17.182
1833.677	18.511
1889.205	3.977
1560.989	7.152
1022.544	38.598
1880.831	3.446
775.657	2.151
1224.533	3.658
1429.511	77.453
1886.979	14.992
1639.826	8.355
482.183	2.793
1040.489	189.702
653.418	6.719
1181.540	406.524
391.070	6.118
1597.179	1.282
1943.754	10.727
1287.620	42.079
1709.441	4.529
1185.519	18.627
1524.641	12.122
1491.425	71.209
1380.921	2.778
1176.717	423.360
663.494	3.808
1861.904	13.178
930.434	26.735
594.557	6.045
933.487	9.005
923.604	22.772
1011.856	15.535
1430.531	35.649
993.323	8.645
1034.622	15.411
1211.254	37.762
1461.646	4.961
1092.183	11.042
1741.468	8.780
1199.949	14.434
1257.603	20.317
1917.740	6.223
693.238	7.773
1664.704	138.003
1610.827	11.690
1665.873	15.134
1219.690	3.442
1596.553	59.579
1368.453	28.702
1604.424	5.878
511.947	6.410
1198.706	11.315
1246.073	3.265
1132.479	9.004
915.387	6.958
1556.381	7.252
860.502	52.606
1186.166	4.065
1801.758	80.487
442.539	6.606
1808.866	2.399
1150.383	29.134
1110.458	652.003
856.378	3.152
851.254	6.035
1116.915	34.083
942.572	3.019
1422.732	8.612
1319.498	7.264
488.674	20.238
837.422	9.669
620.583	11.084
1179.166	12.410
1492.602	79.778
1242.961	2.135
1329.523	5.180
632.390	8.215
1390.437	20.390
1234.793	2399.360
1241.116	5.101
941.031	13.543
1049.663	2.358
1005.326	14.695
639.384	10.516
1927.801	8.998
1991.465	16.084
1789.801	6.394
866.622	5.711
709.220	2.572
1128.269	13.201
1951.707	11.787
621.253	4.315
1905.601	40.395
820.191	3.005
1829.175	4.533
1559.592	2.358
721.427	1.490
1268.659	8.419
722.322	7.556
1401.712	3.137
531.218	4.875
625.286	5.094
1537.643	14.210
983.253	10.349
1122.255	19.487
868.251	8.023
1403.877	7.468
609.332	18.784
1081.326	17.016
1010.244	5.526
1158.441	16.871
1025.686	10.049
1164.511	3.879
471.469	7.627
1048.407	27.348
986.374	65.595
1424.694	12.491
990.002	32.099
1864.524	16.392
1004.633	12.717
1297.662	192.034
1593.383	28.172
852.191	14.889
1270.325	253.526
1142.504	5.414
1252.604	135.466
1028.312	3.658
755.269	13.998
1394.557	63.885
771.221	11.727
1101.787	9.995
752.498	5.196
1082.744	18.264
754.253	14.354
1996.394	7.485
1686.587	6.038
590.506	13.840
840.421	29.254
1439.878	29.271
1357.739	3.917
822.359	2.789
1703.064	14.375
1338.489	56.380
950.710	3.194
1296.498	318.104
1458.638	45.673
1213.615	10.321
589.462	7.257
647.553	2.138
874.202	2.794
1720.424	64.657
528.307	10.880
1020.643	128.427
1660.521	6.917
1085.678	16.100
1130.666	3.242
1673.511	119.822
1485.899	3.236
712.294	10.232
1323.543	19.556
1977.746	11.212
665.234	4.528
1412.669	234.889
629.328	11.961
995.062	8.523
523.218	4.958
941.658	17.061
454.339	3.446
1087.184	6.050
1805.396	3.875
626.277	38.457
1893.852	13.584
1421.549	30.399
796.374	2.786
1748.446	54.739
953.210	22.108
1730.499	8.642
730.328	56.319
742.416	14.734
1474.127	8.029
1082.132	38.160
1211.922	4.096
390.242	116.206
956.208	2.136
769.318	22.708
1906.658	86.990
513.115	3.148
1335.386	10.493
1992.782	2.496
830.305	7.346
765.401	7.916
1118.372	20.331
1557.685	3.225
1966.613	8.792
1144.763	3.661
939.413	7.861
1750.478	4.310
1732.162	10.715
1230.556	10.385
1018.974	3.657
1434.699	6.192
751.535	7.225
1180.388	144.332
1569.616	9.202
1457.607	62.129
1540.071	7.556
1111.558	222.768
1761.728	12.674
731.450	62.747
1221.278	4.309
1953.764	6.252
1699.802	7.279
836.434	14.690
1509.490	222.672
1121.294	2.785
1949.850	9.144
1135.440	5.615
1662.927	5.478
1191.782	18.463
1406.409	11.827
1154.592	29.879
1349.235	25.761
1250.442	34.203
1332.390	6.739
1156.479	38.944
1367.584	68.060
1006.743	14.434
1904.581	7.053
493.255	1.707
1165.404	7.559
716.304	5.780
764.700	2.571
1645.622	8.462
1656.042	1.893
1376.707	17.746
1000.123	8.781
1393.388	41.508
787.481	10.578
1501.004	4.532
724.014	15.555
1739.176	3.879
1203.825	2.120
1298.362	3.097
1137.535	80.256
1577.466	16.372
1223.855	13.129
1240.011	7.777
1337.341	4.270
1459.385	4.131
1066.454	75.049
1071.153	16.810
1473.436	11.382
1646.567	14.795
749.591	108.542
1482.625	502.875
1341.609	18.500
608.379	17.677
1244.496	4.981
1260.796	3.565
1641.640	10.736
1528.723	93.983
1655.393	49.143
1499.391	13.992
1024.557	19.290
1431.273	5.973
1340.957	4.442
1190.548	15.094
913.325	2.967
843.808	8.917
976.066	10.826
429.343	10.025
968.365	46.011
1069.684	696.278
1470.604	15.591
1402.998	47.161
1313.414	20.023
1842.281	7.088
825.203	4.670
966.500	64.153
1969.777	2.356
1763.640	86.531
1647.767	6.918
1060.584	45.807
1611.853	18.626
1715.191	5.965
1225.832	657.534
1258.320	6.037
922.586	20.229
490.314	11.222
695.586	5.579
867.629	2.351
1274.888	12.604
1153.426	2.792
1026.740	10.755
873.219	6.911
1120.171	13.848
1970.788	3.226
1247.544	16.802
1385.545	317.296
394.955	2.495
1576.260	16.285
1837.788	3.367
877.528	110.176
1056.343	26.194
1184.553	4.307
995.939	5.948
698.999	9.585
1420.549	112.341
1340.061	49.423
1945.957	7.256
743.109	22.388
1606.760	4.747
1146.919	6.283
1575.301	16.527
945.366	9.174
1464.262	2.575
859.484	230.713
1961.344	23.894
1535.452	10.072
682.451	5.961
1129.401	9.664
1701.063	4.527
1510.644	106.452
1501.724	2.572
463.506	9.818
1818.584	387.313
1774.946	9.438
1574.433	7.869
977.812	12.610
539.310	8.696
644.365	48.806
1267.660	34.608
969.589	24.755
741.002	6.940
1671.285	14.462
1182.553	145.745
1227.486	9.049
1302.962	4.722
536.803	2.355
1260.073	17.693
1405.135	10.517
838.287	3.155
1052.405	3.431
1661.884	8.107
1226.719	26.685
1271.371	67.531
1916.802	7.262
1799.418	6.065
728.338	2.359
1197.473	6.213
691.327	6.215
1012.535	9.223
1962.376	23.832
489.363	70.389
893.435	15.444
1243.895	17.165
1107.064	17.471
1979.609	47.706
1790.462	4.517
516.325	6.065
END IONS
BEGIN IONS
TITLE=id=PRD000715;PRIDE_Exp_Complete_Ac_24805.xml;spectrum=5
PEPMASS=477.73232650000006
CHARGE=2+
398.542	2.535
698.552	4.262
441.287	2.009
290.146	4.264
285.108	2.095
599.655	4.700
797.351	8.111
468.698	15.395
497.146	1.659
327.303	16.123
399.466	4.157
417.132	6.549
524.275	2.962
528.321	3.397
420.140	24.469
429.487	109.237
437.830	5.722
346.146	3.613
431.334	4.617
460.923	5.670
679.422	3.984
530.242	9.488
530.885	4.827
437.185	6.438
259.139	6.769
455.953	15.542
609.393	4.831
428.860	556.161
364.170	2.096
293.043	3.394
444.032	3.394
697.450	16.034
406.902	40.841
258.232	3.396
418.117	3.746
440.426	4.010
513.415	9.054
666.383	13.492
535.296	2.642
538.307	4.046
411.965	2.641
460.263	9.451
157.485	2.756
439.732	3.396
459.152	9.058
170.951	2.525
END IONS
BEGIN IONS
TITLE=id=PRD000715;PRIDE_Exp_Complete_Ac_24805.xml;spectrum=6
PEPMASS=100
CHARGE=3+
1075.931	4.957
654.034	258.964
858.845	6.047
1048.783	4.083
568.942	14.287
673.614	33.663
398.353	4.740
792.498	10.563
1038.540	22.383
411.726	7.958
1194.636	3.216
1248.616	2.999
942.511	17.282
777.567	15.139
625.403	57.190
412.902	4.609
1136.381	53.336
561.090	3.002
496.154	4.794
890.862	26.327
881.617	13.031
843.346	28.968
1352.423	2.785
290.067	8.518
667.375	2.564
545.437	47.316
1023.312	60.131
472.470	2.999
1092.759	25.920
850.687	35.644
905.804	9.379
809.469	248.918
377.030	2.992
433.333	5.442
1363.723	8.630
371.409	2.417
907.245	57.525
791.439	2.939
742.028	25.516
1484.364	4.517
643.170	45.689
272.359	2.575
720.081	5.507
929.019	29.508
1135.506	80.232
1292.714	2.340
1334.384	7.996
261.240	7.703
554.335	121.846
453.443	9.959
1250.685	11.160
832.992	5.906
1073.213	3.124
575.709	94.293
512.231	18.224
426.001	13.639
576.450	69.045
289.009	3.873
231.286	5.366
825.006	5.378
1398.422	8.207
676.141	18.086
668.297	118.226
955.770	61.980
841.706	12.344
909.257	11.867
922.493	265.601
571.212	6.675
622.422	3.438
790.583	94.546
957.329	3.294
966.453	12.506
1115.496	3.914
541.952	6.474
547.416	50.548
498.294	5.156
707.047	40.497
834.278	37.985
694.451	89.202
463.285	6.036
648.055	74.380
461.501	14.232
616.393	16.976
899.459	28.487
767.529	9.692
415.169	4.612
373.242	2.786
460.377	51.324
474.203	2.564
756.192	116.585
649.532	4.300
1039.498	6.678
933.498	5.406
1681.520	3.438
1035.716	14.589
626.919	3.087
555.223	5.163
584.266	3.437
260.271	7.778
695.503	65.762
739.844	2.568
633.490	67.062
519.466	183.438
650.313	5.388
750.416	37.609
855.661	7.209
882.757	8.949
800.019	73.405
724.460	6.458
1151.595	5.894
236.250	2.351
529.425	2.134
898.366	52.050
1328.552	5.378
611.047	61.512
925.482	15.492
743.346	8.000
923.530	190.274
956.430	136.332
865.210	3.415
517.570	4.942
732.957	16.236
577.476	14.695
505.525	23.186
1037.535	14.143
286.135	5.805
521.896	3.002
699.718	15.848
1429.629	3.060
414.065	4.739
746.993	28.850
654.641	6.017
559.457	60.881
768.789	16.401
1118.351	13.917
548.494	25.316
1154.487	6.043
241.909	2.785
297.749	2.134
781.398	4.137
1852.088	4.554
1004.128	3.204
635.328	6.594
731.539	2.778
674.639	46.866
615.758	6.684
1093.640	22.847
1019.385	2.772
502.820	2.787
434.288	16.937
607.197	2.786
1036.667	2.867
832.091	6.263
1102.288	2.772
900.132	38.904
669.219	16.426
1022.371	54.680
270.230	10.353
904.565	5.111
669.997	2.195
624.566	70.137
598.217	4.465
462.340	29.378
938.322	74.712
599.381	61.180
338.416	4.579
799.368	43.982
729.481	10.216
296.281	9.850
704.615	5.601
1117.566	11.412
686.489	8.361
872.989	2.598
568.268	168.875
864.049	6.303
810.452	181.893
602.418	17.240
262.717	8.394
919.782	8.200
1222.797	15.586
924.572	11.594
1317.818	8.203
536.829	10.137
1649.719	4.721
785.478	3.651
578.271	5.609
947.449	119.471
520.600	13.641
889.534	12.359
876.852	4.726
507.172	3.740
659.614	9.731
1666.242	2.134
698.033	6.688
725.433	7.891
752.402	3.250
END IONS
BEGIN IONS
TITLE=id=PRD000715;PRIDE_Exp_Complete_Ac_24805.xml;spectrum=7
PEPMASS=908.416714
CHARGE=2+
860.360	45.357
1399.294	11.096
975.377	7.199
969.397	6.161
851.319	25.545
1044.089	6.450
772.533	4.203
968.401	38.807
614.475	10.517
1107.568	3.555
1237.179	2.061
1240.636	2.242
741.524	16.722
946.728	3.626
484.405	10.059
1545.621	3.766
1120.305	9.846
1332.496	6.623
562.350	110.231
1364.006	4.212
273.232	2.475
950.255	11.331
929.494	3.127
1287.668	3.582
1331.339	8.601
745.510	55.908
794.413	191.255
643.241	13.741
534.074	3.996
1156.379	22.812
1075.714	12.237
697.428	3.341
337.316	2.469
662.486	6.379
700.290	2.254
1231.572	2.904
1254.525	27.951
714.241	8.763
795.145	41.154
1286.865	11.219
378.262	21.698
638.391	6.981
881.476	4.423
853.382	8.924
951.004	2.713
1350.561	2.035
785.959	6.974
824.562	8.104
571.295	6.336
1084.286	2.900
392.414	3.543
591.369	1.817
811.408	20.291
1238.468	5.025
758.655	4.859
976.264	3.993
655.792	4.384
879.847	10.986
1229.649	18.657
1251.519	13.272
581.443	3.118
1495.228	4.857
1543.656	2.687
1062.587	5.081
1438.514	5.320
1271.510	2.082
637.554	3.517
1218.102	1.820
1544.772	15.220
891.414	27.504
1256.830	2.278
401.328	6.551
1546.799	13.704
1022.659	2.692
788.116	1.817
1364.656	11.992
926.507	9.179
545.464	2.901
935.389	5.245
342.322	6.583
544.684	4.891
1133.718	7.902
847.704	2.467
779.512	7.713
892.927	12.980
529.412	60.991
785.152	8.940
505.514	3.971
805.098	27.205
1368.297	2.115
1341.871	2.659
1241.304	3.119
1526.725	4.856
1264.487	8.491
1139.574	18.268
715.034	4.165
1224.127	3.548
849.334	9.035
1131.451	2.469
341.128	17.430
1125.099	7.908
1323.444	2.467
877.452	2.250
1174.577	4.864
850.285	68.344
1137.224	23.145
859.472	210.292
436.162	34.685
1039.466	36.811
1119.467	50.549
360.202	16.403
1420.833	4.209
787.398	8.548
954.401	4.859
642.164	35.569
873.224	3.842
1367.432	27.725
674.328	6.389
842.605	6.596
753.433	2.905
624.425	4.210
1137.838	24.007
1247.813	9.047
719.226	3.988
679.228	14.202
1157.356	18.963
1138.504	26.153
602.541	4.372
563.463	14.410
761.219	5.895
345.275	5.290
910.954	9.810
765.918	98.161
1201.521	6.163
864.596	8.803
841.427	28.959
928.522	5.944
1392.691	3.340
810.417	39.470
717.001	12.914
1340.704	17.524
708.614	8.956
736.154	4.931
732.390	9.306
1349.734	8.987
909.015	15.731
823.410	11.203
796.547	3.765
623.361	40.362
1236.445	61.770
1532.039	5.687
551.237	6.437
870.073	23.644
469.187	11.782
431.354	23.482
360.999	6.441
1434.770	6.378
1651.677	4.647
899.559	8.771
606.394	8.882
812.544	13.708
1228.466	3.981
1288.472	7.132
767.876	6.541
1149.553	16.951
806.653	1.823
784.166	3.994
848.373	2.683
1269.624	12.250
365.156	5.109
766.558	16.122
369.294	2.681
807.582	3.127
661.578	19.275
825.776	3.338
1168.283	2.034
731.726	5.291
569.477	3.337
272.385	21.810
1359.533	5.072
774.528	1.819
499.388	3.598
890.330	103.420
1211.197	15.276
1440.389	12.469
449.299	99.047
1230.500	18.522
1130.524	8.114
1175.497	4.865
380.454	3.117
1344.715	2.677
1265.894	1.818
450.550	4.803
872.535	2.250
882.130	6.115
1057.463	33.652
1349.082	23.762
1021.483	14.037
734.287	14.597
1362.712	35.995
END IONS
BEGIN IONS
TITLE=id=PRD000715;PRIDE_Exp_Complete_Ac_24805.xml;spectrum=8
PEPMASS=964.949978
CHARGE=2+
1570.628	4.358
1400.793	5.650
915.981	213.812
857.377	4.356
788.577	6.998
683.145	14.969
860.011	10.998
980.828	16.426
298.006	2.508
1327.740	2.425
619.480	3.810
405.505	2.293
1685.100	4.433
1153.907	2.084
833.481	6.849
1162.497	10.653
966.686	30.785
539.281	43.563
1002.749	2.084
467.063	8.625
1378.546	6.951
944.640	6.154
980.198	6.376
1434.600	44.618
1533.615	4.677
776.623	3.700
803.694	11.088
781.330	5.015
898.112	11.849
1235.452	46.848
831.893	21.157
1545.712	2.500
1274.622	27.792
1275.405	5.175
1030.547	9.361
907.121	118.488
593.047	6.331
1298.545	6.376
791.416	8.757
950.582	23.289
522.088	2.899
932.042	8.930
1051.836	4.434
875.063	8.230
1638.418	4.411
1144.454	6.622
1136.514	12.129
555.146	1.856
665.437	22.658
450.301	3.171
514.387	5.005
565.949	22.942
1024.736	4.897
1324.475	5.071
1234.462	3.702
955.828	119.861
1426.401	4.461
836.045	9.019
1395.685	3.376
931.277	4.995
1607.642	5.546
964.447	5.329
699.528	14.437
546.354	2.942
697.342	3.982
881.268	61.220
637.148	15.955
822.556	13.948
806.496	3.718
1348.718	4.864
874.374	3.277
645.409	6.630
1435.654	4.898
1285.586	6.313
1217.562	4.677
1556.890	15.288
942.250	5.690
1292.563	109.490
768.667	2.107
1553.168	6.826
1416.712	15.734
621.245	3.846
805.352	7.215
882.042	25.122
1012.688	13.529
337.109	3.158
1152.435	13.259
534.584	12.454
1399.833	6.176
662.449	1.638
531.131	9.115
605.299	10.330
338.403	5.264
851.054	9.127
1524.475	11.707
609.506	11.110
1363.649	86.004
878.231	7.953
1048.388	20.907
511.238	9.365
1033.592	2.943
914.631	3.492
353.440	3.593
879.098	2.074
1398.365	2.288
965.807	19.776
1148.626	70.610
734.485	19.822
790.328	12.741
862.729	4.244
956.766	14.743
410.318	13.623
1372.131	3.155
789.282	8.465
913.391	3.768
1097.945	4.027
893.930	17.133
1226.368	8.685
525.050	2.939
538.672	14.325
1373.371	8.472
948.995	4.791
1735.963	3.273
550.600	5.526
396.974	2.072
495.275	22.021
663.415	4.178
1036.343	3.162
1765.729	8.803
675.530	6.196
912.429	5.023
596.252	17.624
948.331	15.887
468.287	13.545
477.162	5.915
708.979	5.981
872.385	5.003
716.015	5.501
779.280	3.371
947.252	33.157
1506.137	8.911
1149.744	6.959
853.465	10.100
932.675	7.059
1736.810	7.437
1266.458	9.875
647.263	8.101
1145.298	11.742
921.588	12.933
917.180	16.707
1784.580	3.605
826.634	3.369
767.745	38.095
425.381	4.357
END IONS
BEGIN IONS
TITLE=id=PRD000715;PRIDE_Exp_Complete_Ac_24805.xml;spectrum=9
PEPMASS=554.0188085
CHARGE=4+
684.547	3.505
456.440	4.396
527.343	5.337
388.150	11.883
398.457	15.352
791.253	30.018
598.129	37.958
561.534	7.636
570.499	9.561
820.511	4.704
289.466	6.913
646.305	1219.056
461.743	176.856
543.210	1.660
588.282	12.875
1050.400	5.136
905.997	6.121
655.661	5.396
262.968	25.811
516.067	8.375
673.046	3.170
711.377	4.692
756.511	10.578
298.340	3.834
530.063	20.669
452.977	15.709
535.265	4.487
697.600	7.229
680.514	14.840
517.779	15.147
904.736	7.775
501.267	10.036
669.289	2.528
229.158	31.467
387.216	7.420
809.598	357.657
519.062	8.630
396.311	20.151
708.864	8.735
251.232	5.922
637.522	12.215
532.080	10.329
779.212	3.608
530.801	8.845
906.694	3.532
834.086	32.166
525.076	34.815
613.126	11.559
399.465	21.096
884.705	2.744
470.359	39.511
474.820	12.136
696.513	10.029
548.534	15.864
683.935	81.682
668.569	7.321
585.540	93.085
749.672	11.720
689.824	182.350
777.496	3.161
766.624	3.615
449.297	7.202
583.979	8.946
810.613	40.886
479.188	6.225
608.690	14.810
871.541	3.948
581.454	18.878
912.484	23.678
395.066	10.147
946.684	5.355
923.689	13.551
436.043	15.724
903.114	10.922
773.217	5.132
536.355	29.328
415.987	6.607
405.393	82.703
260.232	2.964
1049.508	8.395
760.409	231.028
589.801	178.113
290.238	4.470
1061.669	2.754
1014.325	2.691
984.275	3.398
540.151	12.110
563.564	11.664
695.660	60.669
494.358	3.616
462.517	39.307
529.155	10.830
556.816	12.282
751.616	5.039
740.059	6.821
791.867	6.241
774.733	21.174
922.658	23.894
792.528	13.281
507.400	4.651
422.406	12.605
409.104	6.007
524.136	6.560
230.181	3.184
380.796	5.121
537.174	14.474
676.400	8.810
691.646	2.729
431.728	13.402
693.171	2.508
508.326	9.628
761.128	80.831
602.097	8.689
758.338	1.881
702.938	257.426
977.718	43.181
526.120	6.127
654.069	6.884
632.445	71.803
969.017	46.982
690.975	22.950
590.587	27.082
759.116	3.084
348.133	21.238
652.077	12.404
678.429	10.791
420.304	4.698
454.123	7.210
373.570	2.086
694.375	167.230
315.479	2.964
640.842	16.757
545.185	110.659
510.544	10.754
442.488	2.545
597.078	20.474
547.482	148.750
274.153	11.050
460.400	49.413
646.917	378.566
469.020	143.285
580.738	2.110
372.945	11.551
631.397	21.347
579.388	28.268
END IONS
BEGIN IONS
TITLE=id=PRD000715;PRIDE_Exp_Complete_Ac_24805.xml;spectrum=10
PEPMASS=1363.0091096666667
CHARGE=3+
1560.810	7.847
1474.636	5.169
1219.465	11.878
1266.847	2.986
580.258	2.993
1802.773	5.365
508.207	9.182
1108.312	18.921
1634.635	52.392
723.527	3.626
1396.316	192.456
852.288	22.041
1874.140	13.233
1300.654	29.059
650.062	4.283
807.819	9.281
1985.091	4.726
1067.677	14.770
879.642	32.282
1386.860	61.683
1262.369	43.904
815.338	2.558
1501.549	102.970
1178.928	5.179
1002.776	7.563
1422.161	14.247
1635.713	45.292
1562.068	2.757
1334.612	17.537
1572.551	47.256
1830.800	6.003
827.567	20.242
1873.533	37.020
666.400	4.276
1616.144	24.195
1294.080	18.484
917.537	5.573
1652.975	21.461
1402.632	4.696
540.109	2.540
877.471	4.325
1725.001	4.059
1077.491	7.934
1330.889	48.122
1791.064	58.113
1515.104	11.509
1117.632	3.026
633.150	7.962
1311.614	129.362
1486.802	2.313
1619.110	19.483
742.632	7.730
1804.493	12.349
755.388	2.316
1702.424	6.697
1605.526	11.038
1280.713	4.676
1238.759	8.850
1431.720	16.504
1875.014	5.171
1234.618	9.032
1364.561	10.187
1864.847	15.955
1652.024	18.469
897.330	12.297
1859.275	8.014
757.515	23.660
1755.687	19.641
870.427	39.615
1586.328	6.869
886.497	7.233
1295.898	8.056
1087.660	1.674
1502.611	35.424
1275.703	8.593
1062.518	5.411
871.412	26.521
489.519	5.844
1175.384	9.235
1405.515	14.524
909.485	3.843
1257.580	6.237
965.784	14.741
1475.887	2.538
1468.293	2.954
411.908	18.017
928.727	190.828
934.564	3.625
1774.870	14.881
997.939	13.352
1379.285	3.407
1476.710	7.281
1466.684	53.975
1520.536	2.755
952.546	4.684
1385.775	6.667
1949.108	5.148
1290.231	5.602
447.419	3.644
562.017	7.530
1820.980	7.295
1023.651	4.929
1783.062	8.880
1165.464	3.383
658.157	4.496
1937.698	11.859
492.506	1.906
1987.406	9.927
1265.711	6.229
1448.549	5.765
1115.805	3.841
1609.840	303.599
1829.127	4.902
1299.583	132.829
829.461	12.287
1499.280	11.903
1230.711	2.968
1665.241	10.757
1333.620	62.957
1397.798	5.341
880.517	9.673
1573.773	13.249
1366.684	5.421
872.638	3.407
1757.558	9.199
1302.323	7.094
1180.494	4.279
935.235	7.898
1458.937	5.157
579.306	5.773
1675.622	5.571
1315.092	2.544
958.720	2.950
1346.531	13.235
1800.223	11.003
738.519	2.542
1249.794	10.539
992.930	20.249
1365.356	15.062
1601.179	2.544
1052.449	5.360
1754.937	14.440
1141.216	14.206
1043.180	41.771
1556.901	2.757
567.936	3.671
1170.203	2.537
1503.935	21.624
597.265	2.542
1005.575	2.108
1342.343	34.221
1855.636	47.588
1363.927	422.626
1381.327	10.552
1674.595	7.614
1575.678	6.280
864.958	4.484
1099.915	14.894
1103.875	4.255
1227.437	100.412
948.469	3.398
1350.167	14.025
818.552	16.399
882.190	11.846
1497.822	12.750
686.561	5.145
1856.981	72.756
1647.268	19.190
1838.132	2.734
919.581	21.035
1717.868	8.391
1078.997	18.535
1270.956	4.679
1332.836	9.824
1462.482	32.644
1573.166	23.440
1286.143	3.842
1395.496	444.292
1292.564	8.219
1312.502	25.301
1503.280	4.464
410.215	5.707
1712.399	25.088
1660.725	5.990
1112.704	9.896
1747.241	15.985
1574.717	7.723
1271.969	5.337
727.522	4.275
1306.922	2.543
1294.783	30.728
1218.390	7.096
1289.030	28.835
1259.431	13.713
667.354	3.194
1516.561	4.486
1345.735	9.809
1007.106	8.713
1473.707	8.602
511.372	5.571
1684.917	13.807
1224.758	3.007
1928.210	18.348
1116.778	47.296
1281.585	6.497
1122.728	4.710
787.028	7.798
1031.786	8.396
1733.062	9.570
1270.220	12.440
1181.719	5.148
1235.698	6.230
1562.806	2.321
1838.995	14.794
1324.456	10.354
1791.969	13.559
1846.884	2.963
1600.543	4.484
509.282	15.730
976.852	3.409
964.024	16.911
929.971	8.964
481.546	5.561
1856.312	18.588
1618.332	8.440
945.450	6.423
1285.045	19.579
1469.012	3.628
966.659	21.401
537.203	2.537
1710.661	11.647
759.792	2.750
1153.638	6.903
1611.056	32.010
1857.934	17.502
695.597	2.988
1821.928	11.977
1636.784	8.317
1423.931	2.573
853.714	15.502
1258.571	14.408
873.646	7.117
1992.927	10.690
1390.632	2.750
483.340	4.489
1263.228	11.752
898.902	6.876
1430.938	59.525
1336.479	12.359
1654.020	4.930
1649.488	7.970
1467.585	29.761
1759.217	10.761
1604.867	13.147
1298.603	153.241
1986.762	3.438
1260.216	7.943
1335.387	7.053
1347.420	49.464
1228.545	29.884
1710.019	23.923
END IONS
BEGIN IONS
TITLE=id=PRD000715;PRIDE_Exp_Complete_Ac_24805.xml;spectrum=11
PEPMASS=399.68014150000005
CHARGE=2+
372.320	6.362
530.631	14.601
459.340	3.533
451.355	3.951
265.233	4.602
351.369	23.349
181.901	3.733
240.042	3.519
231.954	4.105
389.547	4.866
199.146	14.181
353.109	1.997
381.170	17.891
302.256	4.408
393.400	17.162
175.112	22.383
370.296	2.202
507.383	5.190
357.102	6.520
627.404	4.627
286.741	6.798
235.127	2.868
215.102	4.603
301.132	3.763
289.016	4.162
336.623	13.923
173.076	5.444
589.824	10.197
280.047	4.321
322.768	10.244
255.079	9.962
355.266	11.164
418.482	12.725
354.253	2.483
340.140	8.361
346.220	33.169
158.442	1.995
377.659	11.625
531.271	15.083
382.232	78.168
285.277	8.362
216.828	3.981
425.284	2.861
284.252	13.778
337.310	7.140
347.221	8.820
311.288	10.458
313.125	3.075
356.134	2.210
453.494	3.729
300.242	10.193
481.707	3.250
299.224	28.705
269.163	13.885
387.544	21.014
350.714	500.808
390.722	94.234
617.368	5.466
391.524	1.139
338.831	1.809
185.329	2.434
328.820	413.507
417.264	27.929
159.331	2.438
365.424	3.736
END IONS
BEGIN IONS
TITLE=id=PRD000715;PRIDE_Exp_Complete_Ac_24805.xml;spectrum=12
PEPMASS=1042.4636993333334
CHARGE=3+
597.490	77.492
1604.862	4.698
931.740	11.270
968.650	6.068
927.933	4.571
1936.414	5.222
1373.700	8.878
792.828	1.895
1411.264	54.002
908.231	40.513
1014.016	6.795
1033.424	11.572
1914.731	19.029
887.700	6.435
846.069	7.094
737.436	6.229
1783.463	4.344
1501.726	2.532
1234.859	6.966
1306.593	15.554
388.180	4.396
1436.469	3.172
878.142	4.528
926.954	4.545
785.641	3.673
1591.636	1.687
639.562	1.664
435.567	1.877
1599.414	18.601
485.221	10.389
1852.673	3.264
657.375	11.685
1024.318	33.610
980.156	3.926
1194.416	4.371
904.394	4.199
740.272	18.922
1988.033	7.141
761.477	4.269
1835.316	11.834
692.289	5.636
1481.350	6.140
1025.470	7.788
1081.384	3.010
1250.638	3.297
1016.058	19.850
1462.837	8.706
694.971	4.051
1148.646	2.532
1177.552	2.790
786.772	1.665
966.890	63.124
1273.512	3.188
407.836	4.831
1260.768	5.456
912.429	2.753
1909.782	2.312
1372.687	4.490
637.341	12.393
1002.454	1.878
1932.740	16.245
901.555	7.444
1019.657	9.317
646.802	19.044
1213.076	12.792
1411.910	8.709
868.582	6.727
1437.365	7.739
748.507	5.005
744.284	4.699
1274.760	8.116
1833.632	8.654
827.076	8.684
1309.750	1.895
1292.219	11.692
1155.751	5.672
920.544	7.344
970.069	6.007
599.130	4.964
491.327	3.616
1043.433	2.809
1144.163	4.502
801.257	5.022
1226.363	8.252
885.653	5.727
647.411	20.370
1295.044	3.664
1325.876	12.346
1193.530	110.500
1321.737	7.619
609.576	9.332
1751.606	4.273
1460.850	4.752
823.943	6.222
976.196	6.869
875.823	8.449
1201.922	6.528
899.554	7.232
1786.846	6.794
1769.098	2.843
902.587	10.071
1807.136	11.910
780.210	3.871
919.644	8.339
1554.645	14.737
1480.633	2.799
743.565	2.967
1320.783	5.568
1402.397	5.522
1454.463	4.548
967.515	29.492
1441.641	3.880
1281.925	20.996
1581.028	1.880
917.870	30.839
936.641	3.227
755.958	5.177
934.210	14.740
1061.590	5.021
701.955	10.401
990.449	8.536
1057.852	4.275
858.322	18.267
998.680	7.148
831.383	8.212
670.849	7.674
1091.462	9.745
1199.761	6.561
1779.351	3.186
1415.176	6.108
993.902	24.760
1357.737	3.836
1249.867	20.891
620.425	1.934
1022.292	5.612
1145.107	12.164
1293.141	6.260
763.863	25.809
991.218	6.918
END IONS
BEGIN IONS
TITLE=id=PRD000715;PRIDE_Exp_Complete_Ac_24805.xml;spectrum=13
PEPMASS=908.0838776666666
CHARGE=3+
887.742	10.786
581.681	15.377
834.548	4.599
1177.913	3.529
1674.388	9.258
1492.886	1.396
641.478	6.871
782.983	8.746
794.315	15.215
1069.464	79.893
705.139	4.107
1054.114	5.363
1022.933	14.872
893.424	26.665
880.473	14.217
725.423	2.978
1180.246	2.658
739.453	9.507
876.426	60.124
1289.260	36.680
489.379	55.905
765.299	6.446
1185.623	3.826
1312.095	8.404
1163.692	5.823
1040.531	21.897
258.388	2.523
1251.151	10.711
743.940	6.520
767.787	20.309
837.572	19.246
667.387	7.567
811.544	28.853
539.933	2.880
840.522	3.409
588.378	21.607
865.504	14.308
1010.676	7.558
1432.972	1.989
898.774	11.930
1192.000	13.961
638.380	1.570
800.533	13.488
960.645	9.355
915.596	9.757
1142.894	5.756
676.917	9.808
970.234	7.553
699.307	12.732
807.624	2.628
312.938	6.727
1118.242	37.521
1094.717	5.561
789.891	2.812
842.966	11.016
896.697	45.550
566.223	4.364
557.586	16.479
584.422	10.373
871.778	8.005
1308.909	5.768
642.645	8.902
1224.003	27.067
1181.890	2.432
569.845	3.410
1109.089	34.195
673.252	7.997
835.472	11.689
998.136	2.215
632.283	9.306
833.680	117.437
731.595	4.505
1247.574	3.095
1153.018	4.937
576.873	3.306
1666.983	1.993
793.606	43.909
712.492	9.793
1195.543	80.761
538.400	7.596
1296.499	13.707
742.600	2.022
1677.574	3.095
827.554	5.785
828.637	30.461
1153.711	4.820
1412.657	10.366
504.216	1.785
1002.538	11.250
390.363	78.797
968.718	6.214
920.209	6.990
815.853	27.634
813.946	13.002
842.284	97.637
924.130	22.354
1280.382	10.290
845.314	17.923
412.429	2.242
1847.056	3.193
1517.144	1.997
1541.497	2.869
695.489	1.791
531.374	7.426
1117.463	34.334
1026.589	5.708
1288.623	97.882
676.290	6.997
333.447	18.015
490.576	2.877
752.424	10.406
775.481	12.016
1393.805	8.190
1141.626	11.216
664.889	11.262
1039.539	94.705
1004.251	18.933
665.587	10.354
1430.742	10.654
1224.751	22.618
459.184	3.534
601.561	6.521
859.857	27.030
430.187	11.928
890.466	4.385
930.228	3.649
1399.963	2.004
957.435	8.637
392.940	1.575
784.413	11.136
662.407	14.128
788.880	40.053
792.618	21.040
541.041	22.447
1497.471	3.094
978.916	22.593
631.400	9.403
1103.528	18.082
1022.150	16.058
875.502	111.332
1806.895	6.739
672.446	3.439
1072.815	4.566
1186.622	32.872
730.358	1.576
1067.790	16.256
410.467	3.740
734.922	13.553
589.316	6.906
757.772	2.448
607.678	8.234
503.538	5.911
1529.347	14.823
1279.415	13.502
1012.607	3.966
452.310	3.898
758.540	3.949
1111.835	5.325
700.237	4.615
738.306	19.151
844.218	6.869
857.632	4.600
1274.282	15.844
806.151	24.416
515.579	5.177
894.148	6.710
691.362	8.782
1426.713	12.189
1018.001	1.789
1092.496	3.094
1064.065	9.069
1139.437	6.264
749.481	27.217
1367.293	1.572
841.204	17.676
1085.298	2.436
1013.867	6.568
1411.883	6.003
863.570	5.362
1765.264	22.863
815.224	4.311
532.438	5.575
1488.619	7.980
1584.462	23.680
1059.358	13.319
1313.488	16.715
1278.681	2.967
1207.673	6.897
1101.263	7.361
520.938	5.381
891.390	8.512
472.528	2.877
940.604	10.398
1423.867	7.217
713.542	20.089
886.897	12.052
806.993	38.351
955.334	2.217
1196.376	11.156
804.323	15.333
1110.645	95.272
797.023	10.417
1149.775	18.100
740.377	8.167
862.620	22.917
1270.660	8.003
995.408	5.075
585.490	51.751
648.956	2.434
514.637	6.457
850.040	43.160
325.273	9.326
431.092	2.448
1136.292	22.305
1099.956	5.369
706.552	10.939
869.666	37.233
1609.654	4.192
1390.665	5.051
1167.095	133.995
648.355	20.208
979.534	2.827
1337.760	7.555
1049.015	3.324
901.576	5.486
1109.985	8.739
847.363	3.960
541.683	2.501
1623.728	2.441
1149.077	7.677
547.145	4.334
1214.183	9.558
1215.136	12.949
670.901	8.491
709.367	4.178
1161.392	2.654
1062.843	2.868
1118.933	9.981
1723.260	6.459
574.381	3.520
1206.576	5.050
760.706	12.613
402.299	2.434
343.344	4.513
860.591	2.882
748.388	105.307
895.920	28.243
761.518	3.417
786.210	7.299
1537.572	3.747
1181.033	2.222
864.489	4.181
1102.670	2.658
1443.833	3.093
899.730	20.807
1376.950	6.083
838.890	4.113
309.948	7.000
596.469	10.133
439.210	6.649
736.460	3.737
1410.497	3.738
1053.500	15.288
797.918	28.280
1061.999	8.601
1158.325	146.546
1975.110	3.097
958.268	5.375
722.540	4.175
1060.813	12.484
763.498	14.891
647.346	3.645
714.402	3.892
496.971	3.610
548.441	4.181
939.584	17.585
1434.121	3.308
987.999	96.154
1386.939	4.060
877.409	18.237
1230.845	5.817
690.302	4.907
858.944	110.555
1622.807	4.315
715.334	4.616
598.239	7.874
717.657	2.223
889.658	18.467
1589.716	8.170
579.886	8.810
910.430	2.013
824.079	70.030
447.512	8.626
559.251	14.642
914.863	32.746
627.492	19.942
851.092	19.245
656.113	4.833
1483.443	21.049
315.087	3.002
1159.036	7.742
586.468	12.294
376.163	4.924
1312.695	6.670
357.010	6.065
1168.217	6.862
306.264	3.206
966.165	4.833
271.239	2.442
733.996	8.599
1070.305	19.113
348.326	3.312
685.248	2.225
END IONS
BEGIN IONS
TITLE=id=PRD000715;PRIDE_Exp_Complete_Ac_24805.xml;spectrum=14
PEPMASS=686.0332186666666
CHARGE=3+
886.243	40.818
637.752	10.203
582.383	2.441
489.443	5.169
1099.607	3.535
642.469	8.615
725.358	20.435
417.012	3.234
942.518	5.180
708.458	3.528
666.354	19.593
779.951	8.828
626.648	6.181
604.310	11.317
703.348	8.709
1041.630	2.442
895.890	9.268
1196.585	7.543
677.472	15.674
876.593	16.775
1013.702	1.579
965.314	1.570
617.416	4.305
731.383	8.829
885.089	3.325
668.611	25.248
868.740	5.707
758.467	2.664
667.003	30.667
419.470	2.395
599.406	5.273
655.886	2.871
555.114	2.229
707.244	2.879
607.076	21.713
1129.126	5.790
630.056	2.025
836.366	30.316
937.766	1.814
653.602	68.589
675.705	17.195
670.459	4.923
762.195	17.377
486.561	14.715
272.054	3.027
939.832	1.793
702.192	7.342
1233.442	11.681
503.275	5.851
201.007	8.251
504.875	2.227
446.293	3.309
438.315	8.418
741.032	4.619
799.196	2.666
298.277	8.017
484.314	8.053
857.069	5.055
1987.397	4.298
1843.976	3.217
227.084	2.226
690.556	5.885
943.336	22.115
643.362	2.883
636.860	9.977
442.414	11.532
634.333	7.585
288.262	20.296
498.537	6.566
451.406	13.494
664.779	2.883
1994.690	3.107
559.369	13.059
641.365	6.353
628.954	19.145
494.977	5.526
879.242	9.929
776.520	3.538
901.515	2.887
661.050	4.500
990.722	6.589
756.125	1.794
902.702	10.693
717.617	5.918
488.599	6.046
281.437	4.622
802.555	3.224
989.677	20.343
871.627	19.069
648.193	24.389
480.396	5.623
1067.240	11.105
941.580	30.947
369.576	2.231
938.401	3.318
573.447	2.229
771.483	4.403
784.548	2.979
549.897	12.744
696.901	3.317
665.425	9.792
883.015	4.528
878.143	2.875
983.443	6.146
343.263	2.783
268.151	2.230
304.341	3.870
469.871	8.193
END IONS
BEGIN IONS
TITLE=id=PRD000715;PRIDE_Exp_Complete_Ac_24805.xml;spectrum=15
PEPMASS=1028.9800685
CHARGE=2+
1254.577	5.472
1160.003	5.911
396.040	2.957
887.360	5.620
1002.635	22.636
849.862	3.831
1661.455	7.792
1797.989	15.828
1005.741	12.954
953.075	4.367
980.683	1362.716
1068.837	2.749
932.702	4.531
864.309	6.651
1312.284	9.740
675.459	2.306
767.357	5.134
1158.153	4.580
1265.665	9.494
803.252	2.966
1095.493	3.474
1093.254	3.537
1228.970	19.066
791.299	2.953
922.158	3.035
694.663	21.645
1150.315	1.871
876.432	10.134
955.904	10.104
1510.546	2.304
867.360	4.520
918.322	4.770
865.583	3.099
828.464	5.346
737.532	4.527
1029.945	5.395
1203.368	7.574
1309.276	8.514
1168.342	8.757
1384.622	3.175
993.718	5.242
1405.415	6.092
904.819	2.552
809.509	5.706
1152.297	1.936
1037.134	8.757
1092.284	2.534
907.608	1.877
948.226	7.781
1017.024	37.182
923.891	4.092
977.856	8.647
749.894	1.653
1517.293	2.143
1126.310	8.318
577.351	9.113
669.272	2.096
1078.389	2.961
815.457	2.961
895.439	11.268
1911.768	25.343
1169.867	9.527
715.234	2.956
1430.060	2.311
1193.444	25.090
1015.609	23.004
1308.386	12.804
776.526	8.015
884.348	2.095
938.073	16.499
1493.358	7.524
1172.263	8.786
990.690	6.004
752.485	3.717
1003.244	4.136
1135.520	9.221
1418.714	17.548
1012.008	7.557
633.615	1.877
1479.533	12.419
1290.483	27.257
1574.409	6.960
1147.944	26.292
1349.716	8.647
1250.811	3.831
1501.698	5.782
1011.354	25.001
889.094	4.919
1234.781	6.905
920.432	1.444
1266.997	5.038
1188.043	16.467
1229.590	15.794
652.248	4.746
1079.405	12.615
617.179	2.095
766.408	14.854
1438.885	6.913
1232.936	10.783
522.520	7.347
1799.909	5.833
1412.506	6.187
696.167	5.213
916.202	14.734
984.628	11.906
995.208	8.644
971.235	140.580
1210.539	2.966
1306.493	7.425
976.277	11.107
810.633	3.868
1645.952	4.973
972.046	32.172
881.948	5.183
1055.637	4.954
1413.340	14.759
980.026	1291.911
1323.269	14.159
1578.926	5.681
944.736	5.206
1122.596	1.879
1345.354	3.399
651.354	6.007
1213.399	3.831
937.431	39.120
1040.258	2.312
1107.564	2.088
899.375	10.809
1001.089	6.353
1165.330	8.557
1222.248	7.562
961.879	7.778
590.609	3.398
1363.632	19.895
1112.594	9.200
1082.772	8.009
1368.560	2.745
1437.870	3.454
1659.255	2.534
965.583	10.984
1117.734	2.887
1128.628	9.512
885.932	7.525
1662.059	3.029
831.692	23.825
639.987	15.795
1041.703	4.319
985.846	21.172
426.232	4.806
922.839	15.168
END IONS
BEGIN IONS
TITLE=id=PRD000715;PRIDE_Exp_Complete_Ac_24805.xml;spectrum=16
PEPMASS=1019.4211695
CHARGE=2+
1208.487	13.168
996.583	46.115
1077.615	5.061
1677.230	30.477
931.466	4.414
526.278	6.611
725.760	9.246
905.845	3.263
1074.250	15.249
1170.431	5.653
982.197	9.374
629.153	2.338
719.454	3.988
756.258	7.796
1056.230	2.196
965.961	60.804
1157.397	2.196
975.655	2.698
1659.838	2.611
1262.646	13.444
1459.370	5.513
489.228	4.258
1207.316	9.537
465.394	4.779
1031.873	4.030
428.438	4.564
974.219	4.125
1863.665	2.176
1291.404	2.848
546.617	3.558
1607.607	3.046
1247.656	14.897
1089.757	13.487
1801.726	5.430
1535.303	9.841
1808.006	10.594
939.256	17.580
963.256	6.957
1311.621	2.391
642.719	3.692
1220.399	9.288
1092.610	8.181
1234.356	5.652
1891.292	11.864
984.737	15.764
1263.678	6.931
658.164	3.826
983.046	5.064
1792.679	5.870
529.428	12.737
1606.624	5.081
781.301	7.453
966.638	2.985
886.596	12.934
1223.281	3.555
1001.580	99.344
1094.227	5.996
1140.492	2.556
806.548	2.384
1168.631	4.441
1695.391	116.701
960.439	16.382
1380.837	5.002
289.329	3.390
728.352	12.462
712.388	37.289
1378.646	2.608
727.102	3.695
940.685	17.887
830.428	3.479
484.231	6.806
959.583	2.394
1201.806	15.879
743.492	21.507
570.469	8.786
1150.490	2.610
1249.123	4.640
775.391	1.956
1677.849	16.206
753.274	3.478
876.507	7.187
1010.574	15.135
1873.745	10.305
884.791	4.423
1445.854	4.782
1803.985	6.178
1171.165	3.828
575.016	7.257
528.404	25.807
987.311	2.174
1338.683	10.304
968.601	3.914
801.379	2.818
1046.861	5.001
600.420	3.480
1678.704	24.631
760.515	2.611
978.942	18.304
1571.525	2.608
894.482	10.709
920.461	10.183
921.420	2.177
948.355	23.273
1130.440	3.043
1002.485	11.156
823.374	4.852
343.472	48.418
896.339	10.338
1229.928	4.131
791.229	2.630
816.577	23.340
1228.860	3.479
635.501	4.947
641.354	13.064
1020.433	4.782
1264.549	5.307
976.536	5.326
914.149	13.529
1322.569	7.742
1000.719	22.137
817.631	7.446
807.574	2.665
625.086	5.001
772.547	6.216
1642.173	6.216
808.911	6.316
1517.163	12.918
1091.409	69.967
643.430	9.043
947.365	23.459
1705.870	7.467
970.588	36.744
1046.260	20.228
1355.817	2.923
1266.673	5.849
1749.913	5.164
464.442	4.348
763.713	32.918
956.795	56.755
1374.517	6.305
1798.470	7.598
1491.683	6.522
829.187	20.442
746.849	7.899
1385.608	3.912
903.624	5.063
676.662	9.144
964.792	25.745
1034.377	4.124
1527.772	3.479
919.355	9.420
659.708	3.979
779.549	5.123
665.655	5.380
1780.862	4.131
961.556	2.824
495.399	3.749
1189.425	3.045
825.889	68.726
1891.994	9.813
901.372	12.877
694.350	3.480
992.416	18.321
1088.607	12.126
736.410	5.448
771.445	27.607
988.892	2.825
993.175	18.050
435.047	4.558
1765.252	5.505
917.620	4.860
957.615	18.785
540.587	4.696
803.005	5.781
403.158	7.804
893.463	14.897
1267.484	24.355
1219.394	41.778
1455.462	5.503
685.615	2.175
1609.563	5.235
1123.944	6.604
1492.976	7.662
927.310	3.910
684.529	5.514
1473.496	3.044
866.539	1.957
774.535	7.443
1874.385	6.292
700.258	8.639
657.022	4.348
1237.620	3.476
1270.244	2.481
1346.455	3.692
1384.764	5.285
442.192	1.958
1558.841	4.784
1766.694	11.769
1075.514	8.695
699.383	3.691
895.619	7.040
414.076	19.241
798.656	4.911
1624.546	10.045
582.005	8.894
1671.919	3.913
780.398	4.150
1254.203	9.425
929.440	13.539
831.465	2.596
1685.722	3.041
819.442	71.146
904.314	9.198
1588.629	16.438
1204.439	16.696
818.381	8.350
1570.479	7.958
740.136	2.824
1009.778	12.463
911.779	3.337
1048.487	7.116
1407.109	3.558
683.402	3.282
1191.598	10.543
788.583	1.525
626.352	3.698
1841.845	10.433
991.478	7.949
787.308	2.847
1073.371	2.392
1117.398	4.150
877.144	10.337
1256.563	5.997
946.313	9.869
883.956	2.466
1694.205	3.557
971.295	2.630
END IONS
BEGIN IONS
TITLE=id=PRD000715;PRIDE_Exp_Complete_Ac_24805.xml;spectrum=17
PEPMASS=908.416836
CHARGE=2+
724.411	6.385
745.359	130.699
810.529	193.273
705.638	15.368
769.291	8.504
588.189	3.471
950.559	9.325
1076.499	18.334
968.286	58.704
835.400	3.254
1038.802	2.423
1241.764	3.818
1012.708	7.667
1024.578	17.811
1044.669	7.864
1062.750	14.865
1155.298	5.274
284.082	6.659
878.717	4.839
895.610	25.494
741.495	17.934
872.503	19.622
401.010	2.202
916.355	3.039
413.006	2.202
1120.650	9.524
1075.600	6.067
326.387	6.359
410.318	15.285
975.280	29.864
855.101	2.387
1286.927	57.952
701.493	3.683
337.866	5.730
1337.830	11.147
286.371	3.466
630.187	6.080
594.462	2.597
847.118	4.334
1587.741	6.910
1544.580	38.904
1179.141	7.138
449.338	67.707
836.915	3.341
272.237	17.421
613.399	10.731
1138.607	25.661
825.489	4.214
1139.445	8.206
800.456	5.493
1517.786	2.381
765.945	88.084
976.156	1.728
964.972	6.824
1530.792	5.497
1358.578	44.006
940.323	4.118
849.484	10.797
1034.079	2.392
860.307	3.341
1446.233	2.168
1119.601	53.441
893.284	10.652
1265.969	8.966
946.361	8.057
623.326	88.376
717.008	12.174
570.230	5.425
293.196	1.950
710.412	4.017
739.645	4.122
777.607	10.203
1142.586	3.308
284.940	5.643
1330.625	11.998
721.376	29.739
776.045	5.834
930.680	2.386
757.249	18.310
1187.674	16.023
1354.822	1.313
746.161	15.239
1543.590	47.298
714.474	15.499
579.639	5.711
881.209	12.876
644.435	1.302
1071.344	3.360
605.170	4.033
341.244	11.747
1269.531	119.853
663.433	5.120
865.360	4.337
1148.449	8.966
1041.050	1.737
892.034	21.704
532.359	7.752
1244.526	9.843
1135.918	4.665
1264.729	11.542
782.642	3.470
1233.613	1.950
729.621	4.116
624.530	3.033
1137.189	7.996
704.386	3.106
493.439	4.124
1270.442	12.429
1467.469	5.710
738.771	14.610
841.668	15.088
928.485	12.098
1362.644	30.804
509.330	14.962
958.215	3.028
1368.307	3.389
807.421	3.581
780.247	3.269
1230.545	40.886
736.429	32.183
812.345	74.380
661.793	2.382
742.290	7.023
1377.044	2.671
622.435	59.778
1516.813	4.556
642.388	117.767
859.493	447.360
1041.656	4.552
1234.476	6.608
707.939	7.338
591.365	2.600
529.320	93.976
1100.741	2.380
551.533	13.869
378.247	18.078
853.489	10.093
288.057	4.408
665.429	5.991
513.243	2.617
698.361	6.609
869.516	3.816
962.676	5.359
1287.631	58.199
680.338	4.863
805.279	18.129
1082.661	7.509
544.428	40.453
900.069	9.429
974.513	3.040
589.203	6.567
604.317	15.765
571.435	10.946
1149.718	6.557
824.489	26.902
1284.448	14.006
471.395	1.733
690.145	3.905
1004.521	6.423
365.482	10.385
1347.620	3.033
718.252	2.494
270.112	4.122
1137.979	14.982
533.357	8.464
1444.543	5.930
1542.533	22.169
315.090	3.381
450.718	3.567
894.564	30.031
697.291	5.272
408.477	19.456
1074.647	3.037
1349.276	37.905
1057.405	36.742
431.225	84.705
530.591	4.136
601.243	1.945
989.639	2.601
734.600	2.171
1417.634	3.026
1130.222	3.587
654.518	3.138
1143.734	2.597
1346.956	2.888
1438.101	2.604
1323.434	4.470
1322.721	10.741
526.381	3.752
794.571	220.479
1237.696	3.687
852.273	9.442
661.008	6.012
737.570	5.644
1039.615	12.934
785.486	12.859
679.569	22.235
1048.348	5.318
440.305	4.555
1003.693	19.532
562.436	57.836
255.577	4.468
1259.736	2.820
668.750	11.678
1005.524	8.467
908.794	7.239
1445.301	2.740
1059.485	12.089
1158.389	4.843
941.507	3.557
890.556	173.886
846.272	10.674
1571.671	2.712
732.596	20.852
951.404	2.597
1427.896	2.602
360.361	20.248
1211.628	4.613
586.004	4.252
1045.441	10.655
703.557	4.989
877.508	30.226
696.289	3.540
1021.589	48.568
1132.577	3.683
1110.079	5.989
850.628	219.970
988.359	9.552
484.349	1.954
1484.553	5.274
968.944	4.170
277.002	2.202
368.062	1.951
885.848	17.412
1384.028	5.639
436.106	32.287
1256.723	5.420
1156.552	77.372
595.145	7.016
297.423	2.439
758.186	9.259
823.295	82.830
719.455	3.757
806.267	8.400
829.547	2.379
379.283	3.560
1247.476	6.797
830.764	4.451
832.569	7.300
273.220	3.974
1232.792	3.979
861.336	2.494
1345.717	2.378
342.358	1.950
1077.410	8.338
1231.639	3.619
1254.347	11.635
1367.407	28.649
873.261	2.005
380.100	3.160
1563.728	5.207
864.506	2.388
1166.627	2.812
947.039	4.185
1252.010	20.203
899.216	51.087
587.358	9.894
970.031	14.607
422.165	2.494
1188.779	4.916
1662.880	2.379
1357.568	19.231
1526.492	7.691
1236.499	23.773
1174.433	53.641
403.301	12.683
643.591	7.202
863.877	2.382
1285.445	20.055
545.675	3.125
1340.806	10.702
1288.578	10.440
458.245	25.281
792.171	3.579
END IONS
